Far field
"Theta"[deg]	"FarField1 [m^2]"				Matlab          C++
0.00000000E+00	1.51977234E+00	1.52785544576621    1.51715  
1.00000000E+00	1.51989095E+00	1.52796736004224    1.51726  
2.00000000E+00	1.52001256E+00	1.52818494955237    1.51753  
3.00000000E+00	1.52013265E+00	1.52850429198829    1.51793  
4.00000000E+00	1.52024391E+00	1.52891867600616    1.51846  
5.00000000E+00	1.52033637E+00	1.52941862393717    1.51911  
6.00000000E+00	1.52039738E+00	1.52999192670922    1.51987  
7.00000000E+00	1.52041171E+00	1.53062369161307    1.52071  
8.00000000E+00	1.52036162E+00	1.53129640367668    1.52163  
9.00000000E+00	1.52022700E+00	1.53199000152636    1.52258  
1.00000000E+01	1.51998543E+00	1.53268196871080    1.52356  
1.10000000E+01	1.51961239E+00	1.53334744153992    1.52454  
1.20000000E+01	1.51908133E+00	1.53395933454206    1.52547  
1.30000000E+01	1.51836395E+00	1.53448848466768    1.52633  
1.40000000E+01	1.51743028E+00	1.53490381536142    1.5271   
1.50000000E+01	1.51624901E+00	1.53517252158578    1.52772  
1.60000000E+01	1.51478765E+00	1.53526027680525    1.52816  
1.70000000E+01	1.51301282E+00	1.53513146282738    1.52838  
1.80000000E+01	1.51089053E+00	1.53474942324604    1.52835  
1.90000000E+01	1.50838650E+00	1.53407674103905    1.52803  
2.00000000E+01	1.50546647E+00	1.53307554063803    1.52736  
2.10000000E+01	1.50209653E+00	1.53170781451145    1.52631  
2.20000000E+01	1.49824354E+00	1.52993577398309    1.52484  
2.30000000E+01	1.49387548E+00	1.52772222364879    1.52291  
2.40000000E+01	1.48896187E+00	1.52503095835537    1.52048  
2.50000000E+01	1.48347417E+00	1.52182718127113    1.51751  
2.60000000E+01	1.47738627E+00	1.51807794110983    1.51397  
2.70000000E+01	1.47067487E+00	1.51375258607396    1.50982  
2.80000000E+01	1.46331999E+00	1.50882323156555    1.50504  
2.90000000E+01	1.45530537E+00	1.50326523817781    1.49959  
3.00000000E+01	1.44661900E+00	1.49705769593844    1.49345  
3.10000000E+01	1.43725350E+00	1.49018391023167    1.48661  
3.20000000E+01	1.42720659E+00	1.48263188429191    1.47905  
3.30000000E+01	1.41648152E+00	1.47439479264662    1.47076  
3.40000000E+01	1.40508746E+00	1.46547143939968    1.46174  
3.50000000E+01	1.39303985E+00	1.45586669480189    1.452    
3.60000000E+01	1.38036080E+00	1.44559190316302    1.44154  
3.70000000E+01	1.36707930E+00	1.43466525483126    1.43039  
3.80000000E+01	1.35323153E+00	1.42311211471546    1.41856  
3.90000000E+01	1.33886100E+00	1.41096529966186    1.40609  
4.00000000E+01	1.32401872E+00	1.39826529693456    1.39302  
4.10000000E+01	1.30876319E+00	1.38506041609654    1.3794   
4.20000000E+01	1.29316046E+00	1.37140686675749    1.36529  
4.30000000E+01	1.27728392E+00	1.35736875495346    1.35074  
4.40000000E+01	1.26121419E+00	1.34301799136109    1.33584  
4.50000000E+01	1.24503878E+00	1.32843410512992    1.32066  
4.60000000E+01	1.22885172E+00	1.31370395784709    1.30529  
4.70000000E+01	1.21275306E+00	1.29892135302909    1.28982  
4.80000000E+01	1.19684826E+00	1.28418653756824    1.27436  
4.90000000E+01	1.18124754E+00	1.26960559274250    1.25901  
5.00000000E+01	1.16606502E+00	1.25528971372271    1.24388  
5.10000000E+01	1.15141782E+00	1.24135437797287    1.2291   
5.20000000E+01	1.13742511E+00	1.22791840452667    1.21478  
5.30000000E+01	1.12420693E+00	1.21510290782232    1.20104  
5.40000000E+01	1.11188307E+00	1.20303015157241    1.18801  
5.50000000E+01	1.10057179E+00	1.19182231001525    1.17582  
5.60000000E+01	1.09038845E+00	1.18160014581576    1.16458  
5.70000000E+01	1.08144419E+00	1.17248161583261    1.15442  
5.80000000E+01	1.07384447E+00	1.16458041791313    1.14546  
5.90000000E+01	1.06768760E+00	1.15800449378927    1.1378   
6.00000000E+01	1.06306336E+00	1.15285450498999    1.13155  
6.10000000E+01	1.06005148E+00	1.14922230042361    1.1268   
6.20000000E+01	1.05872027E+00	1.14718939587889    1.12364  
6.30000000E+01	1.05912527E+00	1.14682548710703    1.12215  
6.40000000E+01	1.06130797E+00	1.14818701933827    1.12238  
6.50000000E+01	1.06529464E+00	1.15131583701667    1.12438  
6.60000000E+01	1.07109527E+00	1.15623793816537    1.12818  
6.70000000E+01	1.07870270E+00	1.16296235808435    1.1338   
6.80000000E+01	1.08809185E+00	1.17148020699854    1.14123  
6.90000000E+01	1.09921920E+00	1.18176388578301    1.15045  
7.00000000E+01	1.11202245E+00	1.19376650296695    1.16142  
7.10000000E+01	1.12642046E+00	1.20742151483681    1.17408  
7.20000000E+01	1.14231332E+00	1.22264260860452    1.18835  
7.30000000E+01	1.15958283E+00	1.23932384627221    1.20413  
7.40000000E+01	1.17809310E+00	1.25734008400887    1.22131  
7.50000000E+01	1.19769157E+00	1.27654767856864    1.23973  
7.60000000E+01	1.21821015E+00	1.29678548854290    1.25926  
7.70000000E+01	1.23946677E+00	1.31787617408223    1.27972  
7.80000000E+01	1.26126711E+00	1.33962779419215    1.30091  
7.90000000E+01	1.28340662E+00	1.36183569585302    1.32266  
8.00000000E+01	1.30567278E+00	1.38428468410789    1.34473  
8.10000000E+01	1.32784756E+00	1.40675145698135    1.36693  
8.20000000E+01	1.34971005E+00	1.42900728372816    1.38901  
8.30000000E+01	1.37103932E+00	1.45082089956451    1.41076  
8.40000000E+01	1.39161735E+00	1.47196158481745    1.43194  
8.50000000E+01	1.41123202E+00	1.49220239145678    1.45233  
8.60000000E+01	1.42968022E+00	1.51132347537381    1.47172  
8.70000000E+01	1.44677087E+00	1.52911548866688    1.48988  
8.80000000E+01	1.46232797E+00	1.54538298271353    1.50663  
8.90000000E+01	1.47619349E+00	1.55994777007565    1.52177  
9.00000000E+01	1.48823011E+00	1.57265219141416    1.53516  
9.10000000E+01	1.49832384E+00	1.58336223269219    1.54664  
9.20000000E+01	1.50638627E+00	1.59197043811125    1.55609  
9.30000000E+01	1.51235666E+00	1.59839856553169    1.56344  
9.40000000E+01	1.51620363E+00	1.60259993362869    1.56861  
9.50000000E+01	1.51792647E+00	1.60456141376014    1.57158  
9.60000000E+01	1.51755616E+00	1.60430502447269    1.57236  
9.70000000E+01	1.51515584E+00	1.60188909272036    1.57097  
9.80000000E+01	1.51082100E+00	1.59740895315332    1.56751  
9.90000000E+01	1.50467911E+00	1.59099716515963    1.56207  
1.00000000E+02	1.49688890E+00	1.58282323657921    1.5548 
1.01000000E+02	1.48763924E+00	1.57309285299444    1.54589
1.02000000E+02	1.47714758E+00	1.56204662204064    1.53554
1.03000000E+02	1.46565804E+00	1.54995835304482    1.52401
1.04000000E+02	1.45343925E+00	1.53713290324326    1.51157
1.05000000E+02	1.44078187E+00	1.52390363257153    1.49853
1.06000000E+02	1.42799592E+00	1.51062951927666    1.48523
1.07000000E+02	1.41540800E+00	1.49769199807092    1.47202
1.08000000E+02	1.40335842E+00	1.48549159092885    1.45928
1.09000000E+02	1.39219838E+00	1.47444440763075    1.44742
1.10000000E+02	1.38228723E+00	1.46497859849604    1.43684
1.11000000E+02	1.37398985E+00	1.45753084517563    1.42798
1.12000000E+02	1.36767437E+00	1.45254297665963    1.42126
1.13000000E+02	1.36371018E+00	1.45045879662847    1.41714
1.14000000E+02	1.36246626E+00	1.45172120479884    1.41605
1.15000000E+02	1.36431004E+00	1.45676968892357    1.41846
1.16000000E+02	1.36960674E+00	1.46603825558536    1.42481
1.17000000E+02	1.37871917E+00	1.47995385694441    1.43555
1.18000000E+02	1.39200815E+00	1.49893535729184    1.45113
1.19000000E+02	1.40983340E+00	1.52339306783720    1.472  
1.20000000E+02	1.43255505E+00	1.55372886090110    1.49861
1.21000000E+02	1.46053552E+00	1.59033685595140    1.53139
1.22000000E+02	1.49414191E+00	1.63360465013416    1.5708 
1.23000000E+02	1.53374877E+00	1.68391504559293    1.61727
1.24000000E+02	1.57974109E+00	1.74164820547256    1.67125
1.25000000E+02	1.63251747E+00	1.80718415064023    1.73318
1.26000000E+02	1.69249328E+00	1.88090549042071    1.80353
1.27000000E+02	1.76010381E+00	1.96320026364458    1.88274
1.28000000E+02	1.83580707E+00	2.05446475164519    1.97129
1.29000000E+02	1.92008621E+00	2.15510611309114    2.06966
1.30000000E+02	2.01345136E+00	2.26554468224042    2.17834
1.31000000E+02	2.11644072E+00	2.38621576782576    2.29782
1.32000000E+02	2.22962077E+00	2.51757078972876    2.42862
1.33000000E+02	2.35358541E+00	2.66007759517734    2.57126
1.34000000E+02	2.48895395E+00	2.81421980560740    2.72627
1.35000000E+02	2.63636775E+00	2.98049505964455    2.8942 
1.36000000E+02	2.79648555E+00	3.15941203683349    3.07556
1.37000000E+02	2.96997730E+00	3.35148617058622    3.27091
1.38000000E+02	3.15751645E+00	3.55723398700940    3.48075
1.39000000E+02	3.35977088E+00	3.77716603834154    3.70561
1.40000000E+02	3.57739226E+00	4.01177843508577    3.94596
1.41000000E+02	3.81100410E+00	4.26154301883858    4.20223
1.42000000E+02	4.06118852E+00	4.52689625745810    4.47484
1.43000000E+02	4.32847195E+00	4.80822698465318    4.76412
1.44000000E+02	4.61330986E+00	5.10586314630476    5.07032
1.45000000E+02	4.91607092E+00	5.42005775479622    5.39364
1.46000000E+02	5.23702067E+00	5.75097428924811    5.73416
1.47000000E+02	5.57630512E+00	6.09867181274612    6.09184
1.48000000E+02	5.93393461E+00	6.46309010637545    6.46654
1.49000000E+02	6.30976813E+00	6.84403514314366    6.85795
1.50000000E+02	6.70349870E+00	7.24116524180171    7.26564
1.51000000E+02	7.11463990E+00	7.65397825038424    7.689  
1.52000000E+02	7.54251416E+00	8.08180011137070    8.12725
1.53000000E+02	7.98624294E+00	8.52377515425932    8.57944
1.54000000E+02	8.44473930E+00	8.97885844679383    9.04443
1.55000000E+02	8.91670305E+00	9.44581051302807    9.52089
1.56000000E+02	9.40061883E+00	9.92319469501957    10.0073
1.57000000E+02	9.89475730E+00	10.4093773955906    10.502 
1.58000000E+02	1.03971796E+01	10.9025313928851    11.003 
1.59000000E+02	1.09057451E+01	11.4006423641866    11.5083
1.60000000E+02	1.14181230E+01	11.9015186976669    12.0157
1.61000000E+02	1.19318069E+01	12.4028046075698    12.5228
1.62000000E+02	1.24441330E+01	12.9019965021605    13.027 
1.63000000E+02	1.29523018E+01	13.3964624860240    13.5257
1.64000000E+02	1.34534020E+01	13.8834648105345    14.0163
1.65000000E+02	1.39444381E+01	14.3601850201231    14.4959
1.66000000E+02	1.44223599E+01	14.8237514789524    14.9617
1.67000000E+02	1.48840939E+01	15.2712689043270    15.4108
1.68000000E+02	1.53265766E+01	15.6998494811095    15.8404
1.69000000E+02	1.57467888E+01	16.1066450869699    16.2477
1.70000000E+02	1.61417901E+01	16.4888801226602    16.6299
1.71000000E+02	1.65087536E+01	16.8438844157304    16.9846
1.72000000E+02	1.68450002E+01	17.1691256509811    17.3092
1.73000000E+02	1.71480316E+01	17.4622407770377    17.6014
1.74000000E+02	1.74155614E+01	17.7210658460490    17.8592
1.75000000E+02	1.76455442E+01	17.9436637626495    18.0806
1.76000000E+02	1.78362020E+01	18.1283494487419    18.2641
1.77000000E+02	1.79860473E+01	18.2737119718000    18.4082
1.78000000E+02	1.80939023E+01	18.3786332354603    18.5119
1.79000000E+02	1.81589148E+01	18.4423028911012    18.5744
1.80000000E+02	1.81805693E+01	18.4642291966282    18.5952
